DCC SCAN DATA:  file: C:\DCC9-50\TEST.X66  user: 
Specimen: TEST     Crystal: Si     Reflection: 0 0 4
Wavelength: 1.5406 A     Bragg angle: 34.564     kV:  0.00     mA:  0.00

Time:  12:39 Date: 18/11/2004
Scanning axis: TH\2TH  Scan Direction: decreasing
Scan range: 9998.020 sec, in steps of  10.008 sec
Starting positions of motors:
          DET Z       0.00  mm
          OPTICS Z       0.00  mm
          OPTICS R      0.000  deg
          Z CCC       0.00  mm
          Z 1       0.00  mm
          AXIS 1       0.00  sec
          GONIO 2      0.6900  deg
          XSCAN      0.000  mm
          Z 2      0.000  mm
          AXIS 2D     0.00000  deg
          AXIS 2      0.000  sec
          DET D     0.00000  deg
          DETECTOR      0.000  sec
          TH\2TH      0.000  sec
            Component axes and relative motions:
            *AXIS 2     1.0000000000E+00
            *DETECTOR     2.0000000000E+00
          TH D\2TH      0.000  deg
            Component axes and relative motions:
            *AXIS 2D     1.0000000000E+00
            *DET D     2.0000000000E+00
No. of points: 1000     Counting time per point:    2.00
Position   Count
  0.000  112802.00
-10.008  117570.50
-20.016  123420.00
-30.024  129642.00
-40.032  135738.50
-50.040  140055.50
-60.048  145695.50
-70.056  150257.50
-80.064  155423.50
-90.072  159720.00
-100.080  164140.00
-110.088  168523.00
-120.096  171609.00
-130.104  172877.00
-140.112  163113.50
-150.120  154045.00
-160.128  148739.50
-170.136  151631.00
-180.145  156248.00
-190.153  162445.50
-200.161  167046.50
-210.169  171662.00
-220.177  177126.00
-230.185  181715.50
-240.193  186410.50
-250.201  189692.00
-260.209  193259.00
-270.217  196257.50
-280.225  199545.00
-290.233  201985.00
-300.241  204014.00
-310.249  205939.00
-320.257  207510.50
-330.265  212470.50
-340.273  210827.00
-350.281  211619.50
-360.289  213885.00
-370.297  213071.00
-380.305  212605.50
-390.313  213943.00
-400.321  213070.00
-410.329  213086.50
-420.337  213650.50
-430.345  214171.50
-440.353  213798.50
-450.361  214017.00
-460.369  213244.00
-470.377  213759.50
-480.385  213137.50
-490.393  213056.00
-500.401  213140.50
-510.409  212724.00
-520.417  212994.50
-530.425  212584.00
-540.434  212469.00
-550.442  212610.00
-560.450  211444.00
-570.458  211433.00
-580.466  211344.00
-590.474  210559.50
-600.482  210237.50
-610.490  209485.50
-620.498  209753.50
-630.506  208836.00
-640.514  208754.50
-650.522  208401.00
-660.530  208589.00
-670.538  208381.00
-680.546  207685.50
-690.554  207373.50
-700.562  207233.00
-710.570  207035.50
-720.578  206668.50
-730.586  208440.00
-740.594  205558.00
-750.602  205178.00
-760.610  204477.00
-770.618  204020.00
-780.626  203943.00
-790.634  203252.50
-800.642  202861.00
-810.650  203142.50
-820.658  202846.00
-830.666  201883.00
-840.674  201183.00
-850.682  201562.50
-860.690  201387.00
-870.698  200726.50
-880.706  199987.00
-890.714  199039.00
-900.723  198917.50
-910.731  198307.50
-920.739  198062.50
-930.747  197489.00
-940.755  196995.00
-950.763  196583.00
-960.771  195865.00
-970.779  195317.50
-980.787  194275.50
-990.795  194684.50
-1000.803  193762.50
-1010.811  192646.50
-1020.819  191703.00
-1030.827  191888.00
-1040.835  190866.50
-1050.843  189990.50
-1060.851  189893.00
-1070.859  188487.00
-1080.867  187108.00
-1090.875  186732.50
-1100.883  185775.00
-1110.891  184684.50
-1120.899  183516.00
-1130.907  182754.50
-1140.915  181691.50
-1150.923  180649.50
-1160.931  179496.00
-1170.939  178063.00
-1180.947  177026.50
-1190.955  175270.00
-1200.963  173123.50
-1210.971  171967.50
-1220.979  170423.50
-1230.987  168376.50
-1240.995  165859.00
-1251.004  163953.50
-1261.012  161389.50
-1271.020  158909.00
-1281.028  155303.50
-1291.036  152375.50
-1301.044  148466.50
-1311.052  144157.50
-1321.060  139365.00
-1331.068  133676.00
-1341.076  128480.50
-1351.084  122255.00
-1361.092  115017.50
-1371.100  107033.50
-1381.108  100198.50
-1391.116   91370.50
-1401.124   83740.50
-1411.132   74980.00
-1421.140   69488.50
-1431.148   62536.00
-1441.156   56303.00
-1451.164   51933.00
-1461.172   47830.00
-1471.180   44522.00
-1481.188   41350.50
-1491.196   39016.50
-1501.204   36433.00
-1511.212   33365.50
-1521.220   30417.50
-1531.228   27037.50
-1541.236   23669.50
-1551.244   20982.00
-1561.252   19338.00
-1571.260   17730.50
-1581.268   17024.00
-1591.276   15788.50
-1601.284   15212.50
-1611.293   14920.00
-1621.301   14558.50
-1631.309   14646.00
-1641.317   14805.00
-1651.325   14941.00
-1661.333   14679.50
-1671.341   14324.00
-1681.349   13478.00
-1691.357   12293.50
-1701.365   11165.50
-1711.373    9582.00
-1721.381    8388.00
-1731.389    7207.50
-1741.397    6547.50
-1751.405    5872.50
-1761.413    5601.50
-1771.421    5336.50
-1781.429    4981.50
-1791.437    4891.50
-1801.445    4789.00
-1811.453    4845.00
-1821.461    5078.50
-1831.469    5250.00
-1841.477    5458.50
-1851.485    5631.00
-1861.493    5817.00
-1871.501    6222.50
-1881.509    6338.00
-1891.517    6355.00
-1901.525    6160.00
-1911.533    5487.50
-1921.541    4820.00
-1931.549    3790.50
-1941.557    3223.00
-1951.565    2716.00
-1961.573    2485.00
-1971.582    2261.00
-1981.590    2215.00
-1991.598    2211.50
-2001.606    2198.00
-2011.614    2048.50
-2021.622    1921.00
-2031.630    1871.00
-2041.638    1761.50
-2051.646    1831.50
-2061.654    2099.50
-2071.662    2291.00
-2081.670    2541.50
-2091.678    2685.50
-2101.686    2724.50
-2111.694    2818.00
-2121.702    3057.00
-2131.710    3239.00
-2141.718    3228.50
-2151.726    3153.00
-2161.734    2712.50
-2171.742    2435.50
-2181.750    1912.50
-2191.758    1582.00
-2201.766    1219.00
-2211.774    1046.00
-2221.782     909.50
-2231.790     896.00
-2241.798     848.50
-2251.806     957.50
-2261.814    1025.00
-2271.822    1042.50
-2281.830    1055.00
-2291.838     993.00
-2301.846     996.50
-2311.854    1075.50
-2321.863    1173.50
-2331.871    1382.50
-2341.879    1515.00
-2351.887    1650.50
-2361.895    1738.00
-2371.903    1848.50
-2381.911    2031.00
-2391.919    2184.00
-2401.927    2240.50
-2411.935    2242.00
-2421.943    2150.00
-2431.951    1786.00
-2441.959    1512.50
-2451.967    1140.00
-2461.975     916.00
-2471.983     693.50
-2481.991     622.00
-2491.999     595.00
-2502.007     581.00
-2512.015     575.00
-2522.023     649.00
-2532.031     672.50
-2542.039     735.00
-2552.047     723.50
-2562.055     690.50
-2572.063     750.50
-2582.071     780.00
-2592.079     875.50
-2602.087    1010.50
-2612.095    1165.00
-2622.103    1295.50
-2632.111    1472.00
-2642.119    1563.00
-2652.127    1683.50
-2662.135    1865.00
-2672.143    2138.00
-2682.152    2235.50
-2692.160    2394.00
-2702.168    2378.00
-2712.176    2173.50
-2722.184    1986.50
-2732.192    1650.50
-2742.200    1329.00
-2752.208    1055.50
-2762.216     891.00
-2772.224     866.00
-2782.232     842.50
-2792.240     865.00
-2802.248     990.50
-2812.256    1120.50
-2822.264    1169.00
-2832.272    1240.00
-2842.280    1359.00
-2852.288    1363.50
-2862.296    1339.50
-2872.304    1314.50
-2882.312    1378.00
-2892.320    1456.50
-2902.328    1545.00
-2912.336    1667.50
-2922.344    1809.00
-2932.352    1922.00
-2942.360    2135.50
-2952.368    2297.50
-2962.376    2524.50
-2972.384    2755.50
-2982.392    2895.00
-2992.400    2991.00
-3002.408    2876.50
-3012.416    2732.50
-3022.424    2558.00
-3032.432    2345.50
-3042.441    2156.50
-3052.449    1979.50
-3062.457    1903.00
-3072.465    1913.00
-3082.473    2072.00
-3092.481    2155.00
-3102.489    2459.50
-3112.497    2635.00
-3122.505    2928.50
-3132.513    3101.50
-3142.521    3231.50
-3152.529    3388.00
-3162.537    3497.50
-3172.545    3754.00
-3182.553    3982.50
-3192.561    4545.00
-3202.569    5098.00
-3212.577    5793.00
-3222.585    6580.00
-3232.593    7655.00
-3242.601    8740.00
-3252.609    9659.50
-3262.617   11010.00
-3272.625   11883.50
-3282.633   13189.00
-3292.641   13977.50
-3302.649   14880.00
-3312.657   15766.50
-3322.665   16052.50
-3332.673   16436.00
-3342.681   16788.00
-3352.689   16854.00
-3362.697   16966.00
-3372.705   17135.00
-3382.713   17368.00
-3392.721   17639.00
-3402.730   17867.50
-3412.738   17979.50
-3422.746   18025.50
-3432.754   17940.00
-3442.762   18099.00
-3452.770   17751.50
-3462.778   17855.00
-3472.786   17569.50
-3482.794   17858.50
-3492.802   18266.00
-3502.810   19215.50
-3512.818   20633.50
-3522.826   22287.00
-3532.834   24781.00
-3542.842   26666.50
-3552.850   28993.00
-3562.858   30726.00
-3572.866   32735.50
-3582.874   33926.50
-3592.882   35041.00
-3602.890   36218.00
-3612.898   36682.00
-3622.906   36858.00
-3632.914   36580.00
-3642.922   35734.00
-3652.930   34286.50
-3662.938   32709.50
-3672.946   30696.50
-3682.954   28560.50
-3692.962   25976.50
-3702.970   23112.00
-3712.978   20514.00
-3722.986   18687.00
-3732.994   18056.50
-3743.002   18216.50
-3753.011   19361.00
-3763.019   20226.00
-3773.027   20605.00
-3783.035   19647.00
-3793.043   18196.50
-3803.051   15682.50
-3813.059   13258.00
-3823.067   10598.00
-3833.075    8788.00
-3843.083    7848.50
-3853.091    7815.00
-3863.099    8486.50
-3873.107    9882.50
-3883.115   11214.50
-3893.123   12222.50
-3903.131   12886.50
-3913.139   14069.50
-3923.147   14975.50
-3933.155   15842.50
-3943.163   16940.00
-3953.171   17548.00
-3963.179   17590.50
-3973.187   16538.00
-3983.195   15116.50
-3993.203   13311.50
-4003.211   11171.50
-4013.219    9371.50
-4023.227    7645.50
-4033.235    6453.00
-4043.243    5785.00
-4053.251    5374.00
-4063.259    5288.50
-4073.267    5245.00
-4083.275    4964.50
-4093.283    4557.00
-4103.291    4107.00
-4113.300    3686.50
-4123.308    3154.00
-4133.316    2802.00
-4143.324    2467.00
-4153.332    2239.50
-4163.340    1966.50
-4173.348    1677.50
-4183.356    1451.50
-4193.364    1230.00
-4203.372    1023.50
-4213.380     913.50
-4223.388     845.50
-4233.396     841.50
-4243.404     864.00
-4253.412     974.50
-4263.420    1114.00
-4273.428    1221.00
-4283.436    1400.00
-4293.444    1482.00
-4303.452    1583.50
-4313.460    1612.50
-4323.468    1605.00
-4333.476    1600.00
-4343.484    1601.00
-4353.492    1518.00
-4363.500    1456.00
-4373.508    1362.00
-4383.516    1190.00
-4393.524     980.50
-4403.532     817.50
-4413.540     581.50
-4423.548     397.50
-4433.556     256.00
-4443.564     180.50
-4453.572     135.50
-4463.580     125.00
-4473.589     141.50
-4483.597     182.00
-4493.605     185.00
-4503.613     195.50
-4513.621     219.00
-4523.629     237.50
-4533.637     249.50
-4543.645     269.50
-4553.653     302.00
-4563.661     364.00
-4573.669     368.50
-4583.677     394.00
-4593.685     395.50
-4603.693     386.50
-4613.701     362.50
-4623.709     379.00
-4633.717     379.00
-4643.725     342.00
-4653.733     337.00
-4663.741     330.00
-4673.749     289.00
-4683.757     272.00
-4693.765     235.50
-4703.773     227.00
-4713.781     180.50
-4723.789     159.00
-4733.797     126.00
-4743.805     104.00
-4753.813      87.50
-4763.821      92.50
-4773.829     111.00
-4783.837     102.00
-4793.845     104.50
-4803.853     107.50
-4813.861     103.50
-4823.870     112.50
-4833.878     112.50
-4843.886     111.00
-4853.894     122.00
-4863.902     118.50
-4873.910     137.50
-4883.918     153.00
-4893.926     190.50
-4903.934     200.50
-4913.942     232.50
-4923.950     239.00
-4933.958     252.00
-4943.966     259.00
-4953.974     266.00
-4963.982     260.50
-4973.990     218.00
-4983.998     227.50
-4994.006     208.00
-5004.014     169.50
-5014.022     153.50
-5024.030     133.00
-5034.038      95.00
-5044.046      90.50
-5054.054      55.00
-5064.062      41.00
-5074.070      33.00
-5084.078      22.50
-5094.086      34.00
-5104.094      28.50
-5114.102      36.50
-5124.110      33.50
-5134.118      48.00
-5144.126      46.00
-5154.134      49.50
-5164.142      57.00
-5174.150      67.00
-5184.159      70.50
-5194.167      78.00
-5204.175      89.50
-5214.183     115.50
-5224.191     120.50
-5234.199     112.50
-5244.207     124.00
-5254.215     124.50
-5264.223     138.50
-5274.231     118.50
-5284.239     110.00
-5294.247     120.50
-5304.255     111.50
-5314.263     100.00
-5324.271      69.50
-5334.279      80.50
-5344.287      57.00
-5354.295      37.00
-5364.303      32.50
-5374.311      29.50
-5384.319      24.00
-5394.327      21.50
-5404.335      22.00
-5414.343      24.00
-5424.351      21.00
-5434.359      21.00
-5444.367      22.50
-5454.375      24.50
-5464.383      19.00
-5474.391      26.50
-5484.399      30.00
-5494.407      35.00
-5504.415      35.00
-5514.423      46.50
-5524.431      51.00
-5534.439      55.00
-5544.448      51.50
-5554.456      74.50
-5564.464      66.50
-5574.472      70.50
-5584.480      78.50
-5594.488      71.50
-5604.496      71.00
-5614.504      58.50
-5624.512      68.50
-5634.520      61.00
-5644.528      41.00
-5654.536      36.00
-5664.544      28.50
-5674.552      25.50
-5684.560      12.50
-5694.568      16.50
-5704.576      16.00
-5714.584      15.50
-5724.592      12.50
-5734.600      13.50
-5744.608      15.50
-5754.616      13.00
-5764.624      11.50
-5774.632      16.00
-5784.640      16.50
-5794.648      22.50
-5804.656      18.50
-5814.664      28.50
-5824.672      31.50
-5834.680      34.50
-5844.688      56.50
-5854.696      57.50
-5864.704      60.50
-5874.712      66.50
-5884.720      63.00
-5894.729      65.50
-5904.737      86.00
-5914.745      77.50
-5924.753      71.50
-5934.761      74.00
-5944.769      63.50
-5954.777      50.50
-5964.785      46.00
-5974.793      33.00
-5984.801      25.50
-5994.809      20.50
-6004.817      14.00
-6014.825       8.00
-6024.833       4.00
-6034.841       5.50
-6044.849       6.00
-6054.857       8.50
-6064.865      10.50
-6074.873      10.00
-6084.881      12.50
-6094.889      12.00
-6104.897      12.00
-6114.905      14.00
-6124.913      18.00
-6134.921      21.00
-6144.929      23.50
-6154.937      36.00
-6164.945      32.50
-6174.953      38.50
-6184.961      38.00
-6194.969      48.50
-6204.977      52.00
-6214.985      43.50
-6224.993      59.00
-6235.001      46.50
-6245.009      47.00
-6255.018      44.00
-6265.026      32.50
-6275.034      42.50
-6285.042      26.50
-6295.050      22.00
-6305.058      13.50
-6315.066       7.00
-6325.074      10.50
-6335.082       7.50
-6345.090       5.00
-6355.098       8.00
-6365.106      10.50
-6375.114       7.00
-6385.122       6.00
-6395.130      12.00
-6405.138      13.00
-6415.146      10.00
-6425.154      12.00
-6435.162      17.50
-6445.170      18.50
-6455.178      17.50
-6465.186      22.50
-6475.194      22.00
-6485.202      24.50
-6495.210      28.50
-6505.218      30.00
-6515.226      33.00
-6525.234      28.50
-6535.242      21.00
-6545.250      24.00
-6555.258      21.00
-6565.266      20.00
-6575.274      19.50
-6585.282      16.00
-6595.290      10.50
-6605.298       9.00
-6615.307       7.50
-6625.315       5.00
-6635.323       7.50
-6645.331       2.00
-6655.339       7.50
-6665.347       5.00
-6675.355       8.00
-6685.363       8.00
-6695.371      11.00
-6705.379       8.00
-6715.387      10.00
-6725.395      10.00
-6735.403      12.00
-6745.411      16.00
-6755.419      18.00
-6765.427      15.50
-6775.435      13.50
-6785.443      14.50
-6795.451      14.00
-6805.459       9.50
-6815.467       7.00
-6825.475       9.50
-6835.483       7.00
-6845.491       8.00
-6855.499       8.00
-6865.507       7.00
-6875.515      10.00
-6885.523       7.00
-6895.531       7.00
-6905.539       8.00
-6915.547       8.00
-6925.555       7.00
-6935.563      10.50
-6945.571      11.00
-6955.579      10.50
-6965.588      11.50
-6975.596      11.50
-6985.604      14.50
-6995.612      18.00
-7005.620      18.50
-7015.628      19.00
-7025.636      29.50
-7035.644      21.00
-7045.652      28.50
-7055.660      23.50
-7065.668      26.50
-7075.676      28.50
-7085.684      30.00
-7095.692      35.00
-7105.700      24.50
-7115.708      33.50
-7125.716      32.50
-7135.724      32.00
-7145.732      40.50
-7155.740      38.50
-7165.748      43.00
-7175.756      47.00
-7185.764      43.50
-7195.772      38.50
-7205.780      46.50
-7215.788      41.00
-7225.796      36.50
-7235.804      33.50
-7245.812      35.00
-7255.820      37.00
-7265.828      29.50
-7275.836      29.00
-7285.844      27.50
-7295.852      19.50
-7305.860      21.00
-7315.868      20.00
-7325.877      11.50
-7335.885       9.00
-7345.893       9.00
-7355.901       4.50
-7365.909       6.00
-7375.917       8.00
-7385.925       6.50
-7395.933       3.00
-7405.941       1.50
-7415.949       6.50
-7425.957       4.00
-7435.965       1.50
-7445.973       2.00
-7455.981       1.50
-7465.989       1.50
-7475.997       4.00
-7486.005       2.00
-7496.013       0.00
-7506.021       3.00
-7516.029       2.00
-7526.037       1.50
-7536.045       2.00
-7546.053       3.50
-7556.061       2.50
-7566.069       2.00
-7576.077       4.00
-7586.085       2.00
-7596.093       1.50
-7606.101       3.00
-7616.109       3.00
-7626.117       1.50
-7636.125       2.00
-7646.133       0.50
-7656.141       1.50
-7666.149       1.50
-7676.157       1.50
-7686.166       1.00
-7696.174       2.00
-7706.182       1.50
-7716.190       1.00
-7726.198       1.00
-7736.206       5.00
-7746.214       0.50
-7756.222       3.50
-7766.230       2.50
-7776.238       2.50
-7786.246       4.00
-7796.254       1.50
-7806.262       3.50
-7816.270       3.50
-7826.278       1.50
-7836.286       3.50
-7846.294       4.50
-7856.302       3.50
-7866.310       1.50
-7876.318       1.50
-7886.326       3.00
-7896.334       2.50
-7906.342       2.50
-7916.350       4.00
-7926.358       1.50
-7936.366       3.00
-7946.374       2.50
-7956.382       2.00
-7966.390       2.00
-7976.398       2.00
-7986.406       2.00
-7996.414       2.50
-8006.422       1.50
-8016.430       2.00
-8026.438       3.00
-8036.447       0.00
-8046.455       1.50
-8056.463       0.00
-8066.471       1.00
-8076.479       0.50
-8086.487       2.50
-8096.495       1.50
-8106.503       1.00
-8116.511       1.00
-8126.519       0.50
-8136.527       1.50
-8146.535       0.50
-8156.543       1.00
-8166.551       2.50
-8176.559       1.50
-8186.567       2.00
-8196.575       2.50
-8206.583       0.50
-8216.591       1.50
-8226.599       0.50
-8236.607       0.00
-8246.615       1.00
-8256.623       1.00
-8266.631       0.00
-8276.639       1.50
-8286.647       2.00
-8296.655       2.00
-8306.663       1.50
-8316.671       1.50
-8326.679       1.50
-8336.687       1.50
-8346.695       1.50
-8356.703       2.00
-8366.711       3.50
-8376.719       1.50
-8386.727       4.00
-8396.736       2.00
-8406.744       1.50
-8416.752       1.50
-8426.760       2.00
-8436.768       2.00
-8446.776       6.00
-8456.784       3.00
-8466.792       2.50
-8476.800       3.50
-8486.808       2.50
-8496.816       1.50
-8506.824       3.00
-8516.832       3.00
-8526.840       1.50
-8536.848       1.00
-8546.856       0.50
-8556.864       1.00
-8566.872       1.50
-8576.880       0.50
-8586.888       1.50
-8596.896       1.50
-8606.904       1.50
-8616.912       1.00
-8626.920       2.00
-8636.928       1.50
-8646.936       2.50
-8656.944       1.50
-8666.952       1.50
-8676.960       1.00
-8686.968       3.00
-8696.976       3.00
-8706.984       2.00
-8716.992       3.50
-8727.000       2.50
-8737.008       4.50
-8747.016       3.50
-8757.025       4.50
-8767.033       2.50
-8777.041       2.50
-8787.049       2.00
-8797.057       2.00
-8807.065       2.50
-8817.073       1.00
-8827.081       2.50
-8837.089       2.50
-8847.097       1.50
-8857.105       1.50
-8867.113       1.50
-8877.121       1.00
-8887.129       1.00
-8897.137       2.00
-8907.145       1.50
-8917.153       0.50
-8927.161       1.50
-8937.169       2.00
-8947.177       0.50
-8957.185       3.50
-8967.193       2.00
-8977.201       5.00
-8987.209       3.50
-8997.217       3.50
-9007.225       2.00
-9017.233       2.00
-9027.241       1.50
-9037.249       2.00
-9047.257       3.00
-9057.265       1.00
-9067.273       3.00
-9077.281       2.00
-9087.289       3.00
-9097.297       1.00
-9107.306       4.50
-9117.314       2.50
-9127.322       1.50
-9137.330       1.50
-9147.338       3.50
-9157.346       0.50
-9167.354       1.00
-9177.362       1.00
-9187.370       2.00
-9197.378       2.50
-9207.386       0.50
-9217.394       1.00
-9227.402       2.00
-9237.410       2.00
-9247.418       2.00
-9257.426       1.50
-9267.434       3.00
-9277.442       3.50
-9287.450       3.50
-9297.458       1.00
-9307.466       1.00
-9317.474       2.50
-9327.482       2.50
-9337.490       1.50
-9347.498       3.00
-9357.506       3.50
-9367.514       3.00
-9377.522       3.50
-9387.530       2.50
-9397.538       2.00
-9407.546       1.50
-9417.554       3.00
-9427.562       3.50
-9437.570       4.50
-9447.578       1.00
-9457.586       1.50
-9467.595       1.50
-9477.603       0.00
-9487.611       2.00
-9497.619       1.50
-9507.627       1.50
-9517.635       0.50
-9527.643       0.50
-9537.651       1.00
-9547.659       0.50
-9557.667       1.50
-9567.675       1.50
-9577.683       1.50
-9587.691       1.00
-9597.699       2.50
-9607.707       2.00
-9617.715       2.50
-9627.723       3.00
-9637.731       2.50
-9647.739       3.00
-9657.747       2.50
-9667.755       3.00
-9677.763       1.00
-9687.771       3.00
-9697.779       4.00
-9707.787       1.50
-9717.795       1.00
-9727.803       1.50
-9737.811       1.50
-9747.819       1.00
-9757.827       1.50
-9767.835       1.00
-9777.843       1.50
-9787.851       1.00
-9797.859       1.50
-9807.867       2.00
-9817.875       0.50
-9827.884       3.50
-9837.892       1.50
-9847.900       2.50
-9857.908       3.00
-9867.916       1.50
-9877.924       3.50
-9887.932       1.00
-9897.940       1.00
-9907.948       3.50
-9917.956       0.50
-9927.964       3.00
-9937.972       2.00
-9947.980       1.00
-9957.988       2.00
-9967.996       3.00
-9978.004       0.50
-9988.012       1.00
-9998.020       1.50
